* Measurement data measured by REW V5.20.4
* Source: Microphone (BGVP HiFi Audio-T01s), MICROPHONE (Master Volume), R, volume: 0.260
* Format: 256k Log Swept Sine, 1 sweep at -6.0 dBFS with no timing reference
* Dated: 30 May, 2023 12:31:15 AM
* REW Settings:
*  C-weighting compensation: Off
*  Target level: 75.0 dB
* Note: 
* Measurement: HA-FDX1 Green L
* Smoothing: None
* Frequency Step: 1/96 octave
* Start Frequency: 0.366 Hz
*
* Freq(Hz) SPL(dB) Phase(degrees)
0.366299 27.782 -100.7412
0.368954 27.841 -100.2572
0.371627 27.901 -99.7494
0.374320 27.962 -99.2174
0.377033 28.023 -98.6613
0.379765 28.084 -98.0807
0.382517 28.146 -97.4757
0.385289 28.208 -96.8459
0.388081 28.271 -96.1914
0.390893 28.334 -95.5119
0.393725 28.397 -94.8074
0.396578 28.461 -94.0778
0.399452 28.526 -93.3229
0.402347 28.591 -92.5427
0.405262 28.656 -91.7370
0.408199 28.722 -90.9058
0.411157 28.789 -90.0491
0.414136 28.856 -89.1668
0.417137 28.923 -88.2587
0.420160 28.991 -87.3250
0.423205 29.059 -86.3655
0.426272 29.128 -85.3803
0.429361 29.197 -84.3694
0.432472 29.267 -83.3328
0.435606 29.338 -82.2704
0.438762 29.409 -81.1825
0.441942 29.480 -80.0689
0.445144 29.552 -78.9298
0.448370 29.624 -77.7653
0.451619 29.697 -76.5755
0.454892 29.771 -75.3604
0.458188 29.845 -74.1203
0.461508 29.919 -72.8553
0.464852 29.994 -71.5655
0.468221 30.070 -70.2512
0.471614 30.146 -68.9125
0.475031 30.223 -67.5498
0.478474 30.300 -66.1632
0.481941 30.378 -64.7530
0.485433 30.456 -63.3196
0.488951 30.535 -61.8632
0.492494 30.615 -60.3843
0.496063 30.695 -58.8831
0.499658 30.776 -57.3601
0.503278 30.857 -55.8157
0.506925 30.939 -54.2503
0.510599 31.021 -52.6645
0.514299 31.104 -51.0588
0.518025 31.188 -49.4336
0.521779 31.272 -47.7896
0.525560 31.357 -46.1274
0.529369 31.443 -44.4477
0.533205 31.529 -42.7510
0.537069 31.616 -41.0382
0.540960 31.703 -39.3099
0.544880 31.791 -37.5669
0.548829 31.880 -35.8102
0.552806 31.969 -34.0405
0.556812 32.059 -32.2588
0.560847 32.150 -30.4659
0.564911 32.241 -28.6630
0.569004 32.333 -26.8510
0.573128 32.425 -25.0311
0.577281 32.519 -23.2044
0.581464 32.613 -21.3720
0.585677 32.707 -19.5353
0.589921 32.802 -17.6955
0.594196 32.898 -15.8539
0.598502 32.995 -14.0121
0.602839 33.092 -12.1713
0.607207 33.191 -10.3332
0.611608 33.289 -8.4994
0.616040 33.389 -6.6715
0.620504 33.489 -4.8512
0.625000 33.590 -3.0403
0.629529 33.692 -1.2407
0.634091 33.794 0.5458
0.638686 33.897 2.3170
0.643314 34.001 4.0711
0.647976 34.106 5.8057
0.652671 34.211 7.5187
0.657401 34.317 9.2078
0.662164 34.424 10.8705
0.666963 34.532 12.5044
0.671796 34.641 14.1069
0.676664 34.750 15.6754
0.681567 34.860 17.2070
0.686506 34.971 18.6989
0.691481 35.083 20.1483
0.696492 35.195 21.5519
0.701539 35.309 22.9067
0.706622 35.423 24.2093
0.711743 35.538 25.4565
0.716900 35.653 26.6447
0.722095 35.770 27.7702
0.727328 35.888 28.8294
0.732599 36.007 29.7865
0.737907 36.172 29.7877
0.743254 36.342 29.7910
0.748640 36.516 29.7964
0.754065 36.696 29.8039
0.759530 36.881 29.8135
0.765033 37.070 29.8252
0.770577 37.264 29.8389
0.776161 37.463 29.8546
0.781785 37.666 29.8723
0.787451 37.875 29.8919
0.793157 38.088 29.9134
0.798904 38.305 29.9367
0.804694 38.527 29.9619
0.810525 38.753 29.9888
0.816398 38.984 30.0174
0.822314 39.219 30.0478
0.828273 39.458 30.0797
0.834275 39.701 30.1132
0.840320 39.948 30.1481
0.846410 40.198 30.1845
0.852543 40.453 30.2223
0.858721 40.711 30.2613
0.864944 40.973 30.3016
0.871211 41.238 30.3429
0.877525 41.506 30.3854
0.883883 41.777 30.4287
0.890288 42.051 30.4729
0.896740 42.328 30.5179
0.903238 42.607 30.5636
0.909783 42.889 30.6098
0.916376 43.173 30.6564
0.923016 43.459 30.7034
0.929705 43.746 30.7506
0.936442 44.035 30.7978
0.943228 44.326 30.8450
0.950063 44.617 30.8919
0.956947 44.910 30.9386
0.963882 45.203 30.9847
0.970866 45.496 31.0301
0.977902 45.789 31.0748
0.984988 46.082 31.1184
0.992126 46.374 31.1609
0.999315 46.666 31.2020
1.006557 46.956 31.2416
1.013850 47.245 31.2794
1.021197 47.531 31.3152
1.028597 47.815 31.3489
1.036051 48.097 31.3802
1.043558 48.375 31.4088
1.051121 48.650 31.4346
1.058737 48.921 31.4573
1.066409 49.187 31.4765
1.074137 49.449 31.4922
1.081921 49.705 31.5039
1.089761 49.955 31.5113
1.097658 50.198 31.5143
1.105612 50.437 31.4334
1.113623 50.672 31.3311
1.121693 50.904 31.2181
1.129821 51.134 31.0946
1.138009 51.360 30.9607
1.146255 51.583 30.8165
1.154561 51.804 30.6622
1.162928 52.022 30.4979
1.171355 52.237 30.3238
1.179843 52.450 30.1400
1.188393 52.660 29.9468
1.197004 52.867 29.7444
1.205678 53.072 29.5330
1.214415 53.275 29.3127
1.223215 53.475 29.0840
1.232079 53.673 28.8469
1.241007 53.869 28.6019
1.250000 54.063 28.3492
1.259058 54.255 28.0891
1.268182 54.446 27.8219
1.277371 54.634 27.5481
1.286628 54.821 27.2679
1.295951 55.007 26.9818
1.305342 55.191 26.6902
1.314801 55.374 26.3935
1.324329 55.557 26.0921
1.333925 55.738 25.7865
1.343592 55.919 25.4773
1.353328 56.099 25.1649
1.363135 56.280 24.8498
1.373013 56.460 24.5328
1.382962 56.640 24.2142
1.392983 56.820 23.8948
1.403078 57.001 23.5753
1.413245 57.183 23.2562
1.423486 57.366 22.9382
1.433801 57.551 22.6222
1.444191 57.737 22.3089
1.454656 57.924 21.9991
1.465197 58.114 21.6935
1.475815 58.305 21.3878
1.486509 58.493 21.0774
1.497281 58.680 20.7625
1.508131 58.866 20.4432
1.519059 59.049 20.1194
1.530067 59.232 19.7913
1.541154 59.413 19.4588
1.552322 59.593 19.1221
1.563571 59.771 18.7813
1.574901 59.948 18.4364
1.586314 60.123 18.0875
1.597809 60.298 17.7348
1.609387 60.471 17.3782
1.621049 60.643 17.0180
1.632796 60.815 16.6541
1.644628 60.985 16.2868
1.656546 61.154 15.9162
1.668550 61.322 15.5423
1.680641 61.490 15.1654
1.692819 61.657 14.7855
1.705086 61.823 14.4028
1.717442 61.989 14.0175
1.729887 62.155 13.6297
1.742423 62.320 13.2396
1.755049 62.485 12.8474
1.767767 62.650 12.4532
1.780577 62.815 12.0574
1.793480 62.980 11.6599
1.806476 63.146 11.2612
1.819566 63.312 10.8613
1.832752 63.478 10.4606
1.846033 63.644 10.0574
1.859410 63.808 9.6509
1.872884 63.972 9.2410
1.886456 64.134 8.8279
1.900126 64.294 8.4115
1.913895 64.454 7.9920
1.927764 64.612 7.5694
1.941733 64.769 7.1438
1.955804 64.925 6.7153
1.969976 65.081 6.2839
1.984251 65.235 5.8498
1.998630 65.388 5.4131
2.013113 65.540 4.9738
2.027701 65.692 4.5321
2.042394 65.842 4.0880
2.057194 65.992 3.6417
2.072102 66.142 3.1932
2.087117 66.290 2.7428
2.102241 66.439 2.2906
2.117475 66.587 1.8366
2.132819 66.734 1.3810
2.148274 66.881 0.9240
2.163841 67.029 0.4658
2.179522 67.176 0.0064
2.195315 67.323 -0.4539
2.211223 67.470 -0.9157
2.227247 67.615 -1.3799
2.243386 67.759 -1.8463
2.259643 67.902 -2.3151
2.276017 68.044 -2.7859
2.292510 68.185 -3.2589
2.309123 68.324 -3.7338
2.325855 68.463 -4.2106
2.342710 68.600 -4.6892
2.359686 68.737 -5.1695
2.376785 68.872 -5.6514
2.394008 69.007 -6.1348
2.411356 69.141 -6.6195
2.428830 69.274 -7.1055
2.446430 69.407 -7.5926
2.464158 69.539 -8.0808
2.482014 69.670 -8.5698
2.500000 69.801 -9.0595
2.518116 69.932 -9.5498
2.536363 70.062 -10.0405
2.554743 70.192 -10.5315
2.573256 70.322 -11.0227
2.591902 70.451 -11.5149
2.610684 70.578 -12.0081
2.629603 70.705 -12.5021
2.648658 70.830 -12.9969
2.667851 70.954 -13.4925
2.687183 71.077 -13.9888
2.706656 71.199 -14.4856
2.726269 71.320 -14.9829
2.746025 71.440 -15.4806
2.765924 71.559 -15.9786
2.785967 71.678 -16.4768
2.806155 71.795 -16.9751
2.826490 71.913 -17.4734
2.846972 72.029 -17.9716
2.867602 72.146 -18.4697
2.888382 72.262 -18.9674
2.909312 72.377 -19.4646
2.930394 72.493 -19.9613
2.951629 72.608 -20.4574
2.973018 72.721 -20.9529
2.994561 72.834 -21.4476
3.016261 72.945 -21.9418
3.038118 73.056 -22.4352
3.060134 73.165 -22.9280
3.082309 73.274 -23.4201
3.104645 73.381 -23.9114
3.127142 73.488 -24.4021
3.149803 73.595 -24.8920
3.172627 73.700 -25.3812
3.195618 73.806 -25.8697
3.218774 73.910 -26.3574
3.242099 74.015 -26.8445
3.265593 74.119 -27.3308
3.289256 74.224 -27.8163
3.313092 74.327 -28.3008
3.337100 74.430 -28.7833
3.361282 74.533 -29.2639
3.385639 74.634 -29.7428
3.410173 74.734 -30.2199
3.434884 74.834 -30.6955
3.459775 74.933 -31.1697
3.484846 75.031 -31.6426
3.510098 75.129 -32.1145
3.535534 75.226 -32.5854
3.561154 75.323 -33.0555
3.586959 75.420 -33.5250
3.612952 75.516 -33.9941
3.639133 75.613 -34.4630
3.665504 75.709 -34.9319
3.692065 75.806 -35.3993
3.718820 75.901 -35.8645
3.745768 75.996 -36.3276
3.772911 76.090 -36.7889
3.800251 76.184 -37.2486
3.827789 76.277 -37.7072
3.855527 76.370 -38.1648
3.883466 76.462 -38.6217
3.911607 76.554 -39.0784
3.939952 76.646 -39.5351
3.968503 76.738 -39.9922
3.997260 76.830 -40.4501
4.026226 76.922 -40.9092
4.055401 77.013 -41.3684
4.084789 77.104 -41.8263
4.114388 77.195 -42.2830
4.144203 77.285 -42.7389
4.174234 77.375 -43.1944
4.204482 77.465 -43.6496
4.234950 77.554 -44.1049
4.265638 77.643 -44.5607
4.296548 77.732 -45.0172
4.327683 77.820 -45.4750
4.359043 77.908 -45.9344
4.390630 77.997 -46.3958
4.422447 78.085 -46.8586
4.454494 78.172 -47.3217
4.486773 78.259 -47.7851
4.519286 78.346 -48.2491
4.552034 78.433 -48.7138
4.585020 78.519 -49.1793
4.618245 78.604 -49.6459
4.651711 78.690 -50.1136
4.685419 78.775 -50.5828
4.719372 78.859 -51.0536
4.753570 78.944 -51.5262
4.788016 79.027 -52.0006
4.822712 79.111 -52.4764
4.857660 79.194 -52.9535
4.892860 79.276 -53.4318
4.928316 79.358 -53.9113
4.964029 79.439 -54.3918
5.000000 79.520 -54.8734
5.036232 79.601 -55.3560
5.072727 79.681 -55.8396
5.109486 79.760 -56.3239
5.146511 79.839 -56.8091
5.183805 79.918 -57.2955
5.221369 79.996 -57.7830
5.259205 80.073 -58.2714
5.297316 80.149 -58.7606
5.335702 80.225 -59.2502
5.374367 80.301 -59.7401
5.413311 80.376 -60.2301
5.452538 80.450 -60.7199
5.492050 80.524 -61.2094
5.531847 80.598 -61.6986
5.571934 80.671 -62.1878
5.612310 80.743 -62.6770
5.652979 80.814 -63.1659
5.693943 80.885 -63.6545
5.735204 80.956 -64.1426
5.776763 81.026 -64.6300
5.818624 81.096 -65.1166
5.860788 81.165 -65.6023
5.903258 81.234 -66.0867
5.946035 81.303 -66.5700
5.989123 81.371 -67.0521
6.032523 81.438 -67.5331
6.076237 81.505 -68.0132
6.120268 81.572 -68.4925
6.164618 81.638 -68.9710
6.209289 81.705 -69.4489
6.254284 81.771 -69.9261
6.299605 81.837 -70.4015
6.345255 81.902 -70.8755
6.391235 81.968 -71.3482
6.437549 82.033 -71.8202
6.484198 82.097 -72.2916
6.531185 82.162 -72.7630
6.578513 82.226 -73.2346
6.626183 82.291 -73.7063
6.674199 82.355 -74.1769
6.722563 82.419 -74.6467
6.771278 82.483 -75.1161
6.820345 82.547 -75.5854
6.869768 82.610 -76.0549
6.919549 82.674 -76.5253
6.969691 82.737 -76.9967
7.020196 82.800 -77.4685
7.071068 82.863 -77.9404
7.122308 82.926 -78.4125
7.173919 82.988 -78.8849
7.225904 83.051 -79.3579
7.278266 83.113 -79.8316
7.331007 83.174 -80.3062
7.384131 83.236 -80.7817
7.437639 83.297 -81.2578
7.491535 83.358 -81.7344
7.545822 83.418 -82.2113
7.600502 83.478 -82.6884
7.655579 83.538 -83.1654
7.711054 83.597 -83.6423
7.766932 83.656 -84.1195
7.823214 83.715 -84.5969
7.879904 83.773 -85.0740
7.937005 83.830 -85.5506
7.994520 83.888 -86.0263
8.052452 83.945 -86.5006
8.110803 84.001 -86.9737
8.169578 84.057 -87.4458
8.228777 84.113 -87.9168
8.288406 84.168 -88.3863
8.348468 84.223 -88.8541
8.408964 84.277 -89.3198
8.469899 84.332 -89.7833
8.531276 84.386 -90.2445
8.593097 84.439 -90.7036
8.655366 84.493 -91.1606
8.718086 84.546 -91.6155
8.781260 84.599 -92.0685
8.844893 84.652 -92.5191
8.908987 84.704 -92.9669
8.973545 84.757 -93.4123
9.038571 84.809 -93.8558
9.104069 84.862 -94.2979
9.170040 84.914 -94.7390
9.236490 84.966 -95.1781
9.303422 85.019 -95.6150
9.370838 85.071 -96.0504
9.438744 85.123 -96.4850
9.507140 85.175 -96.9195
9.576033 85.227 -97.3539
9.645425 85.279 -97.7872
9.715320 85.331 -98.2198
9.785721 85.383 -98.6523
9.856632 85.435 -99.0853
9.928058 85.486 -99.5190
10.000000 85.538 -99.9530
10.072464 85.589 -100.3870
10.145453 85.640 -100.8213
10.218971 85.690 -101.2560
10.293022 85.740 -101.6912
10.367610 85.790 -102.1269
10.442738 85.839 -102.5630
10.518411 85.887 -102.9988
10.594631 85.936 -103.4341
10.671404 85.983 -103.8687
10.748734 86.030 -104.3032
10.826623 86.076 -104.7369
10.905077 86.122 -105.1693
10.984100 86.167 -105.5997
11.063695 86.212 -106.0280
11.143867 86.255 -106.4546
11.224621 86.299 -106.8791
11.305959 86.341 -107.3010
11.387886 86.384 -107.7199
11.470407 86.426 -108.1357
11.553527 86.467 -108.5485
11.637249 86.508 -108.9587
11.721577 86.548 -109.3666
11.806517 86.589 -109.7713
11.892071 86.629 -110.1729
11.978246 86.669 -110.5722
12.065045 86.708 -110.9703
12.152473 86.748 -111.3673
12.240536 86.788 -111.7620
12.329235 86.827 -112.1555
12.418578 86.866 -112.5490
12.508568 86.905 -112.9432
12.599211 86.943 -113.3370
12.690510 86.982 -113.7310
12.782471 87.020 -114.1256
12.875097 87.058 -114.5215
12.968395 87.095 -114.9184
13.062370 87.132 -115.3159
13.157025 87.168 -115.7137
13.252366 87.204 -116.1118
13.348398 87.239 -116.5107
13.445127 87.273 -116.9093
13.542556 87.307 -117.3068
13.640691 87.340 -117.7030
13.739536 87.373 -118.0983
13.839099 87.405 -118.4920
13.939383 87.436 -118.8834
14.040393 87.467 -119.2723
14.142136 87.498 -119.6590
14.244616 87.528 -120.0439
14.347837 87.559 -120.4268
14.451808 87.589 -120.8073
14.556532 87.618 -121.1863
14.662014 87.648 -121.5652
14.768262 87.678 -121.9435
14.875278 87.708 -122.3212
14.983070 87.738 -122.6998
15.091644 87.767 -123.0800
15.201005 87.797 -123.4613
15.311157 87.826 -123.8438
15.422109 87.855 -124.2279
15.533863 87.883 -124.6141
15.646428 87.911 -125.0014
15.759809 87.939 -125.3888
15.874010 87.966 -125.7769
15.989040 87.992 -126.1651
16.104904 88.018 -126.5519
16.221605 88.043 -126.9366
16.339155 88.068 -127.3198
16.457554 88.093 -127.7004
16.576813 88.117 -128.0777
16.696936 88.141 -128.4519
16.817928 88.165 -128.8237
16.939798 88.188 -129.1928
17.062551 88.212 -129.5591
17.186193 88.236 -129.9242
17.310732 88.261 -130.2887
17.436172 88.285 -130.6520
17.562521 88.309 -131.0158
17.689787 88.334 -131.3808
17.817974 88.358 -131.7464
17.947090 88.382 -132.1130
18.077143 88.406 -132.4811
18.208138 88.430 -132.8501
18.340080 88.453 -133.2188
18.472980 88.475 -133.5878
18.606844 88.497 -133.9561
18.741676 88.519 -134.3221
18.877487 88.539 -134.6863
19.014280 88.560 -135.0478
19.152065 88.580 -135.4057
19.290850 88.599 -135.7601
19.430639 88.618 -136.1113
19.571442 88.637 -136.4588
19.713264 88.656 -136.8031
19.856115 88.675 -137.1451
20.000000 88.694 -137.4844
20.144928 88.712 -137.8223
20.290907 88.731 -138.1591
20.437943 88.749 -138.4948
20.586044 88.767 -138.8302
20.735220 88.785 -139.1652
20.885475 88.803 -139.4996
21.036821 88.820 -139.8336
21.189262 88.837 -140.1667
21.342808 88.853 -140.4983
21.497467 88.869 -140.8284
21.653246 88.884 -141.1563
21.810154 88.899 -141.4818
21.968201 88.914 -141.8049
22.127390 88.928 -142.1254
22.287735 88.943 -142.4438
22.449242 88.957 -142.7610
22.611917 88.971 -143.0768
22.775772 88.986 -143.3933
22.940815 89.000 -143.7103
23.107054 89.014 -144.0291
23.274498 89.028 -144.3502
23.443153 89.042 -144.6734
23.613033 89.055 -144.9991
23.784142 89.068 -145.3261
23.956491 89.079 -145.6536
24.130091 89.090 -145.9807
24.304947 89.100 -146.3051
24.481071 89.110 -146.6268
24.658470 89.118 -146.9437
24.837156 89.127 -147.2561
25.017136 89.135 -147.5638
25.198421 89.144 -147.8670
25.381020 89.153 -148.1677
25.564941 89.162 -148.4659
25.750195 89.172 -148.7646
25.936790 89.182 -149.0636
26.124741 89.192 -149.3647
26.314051 89.202 -149.6679
26.504732 89.212 -149.9731
26.696796 89.221 -150.2798
26.890253 89.230 -150.5867
27.085112 89.238 -150.8930
27.281382 89.246 -151.1973
27.479073 89.253 -151.4989
27.678198 89.260 -151.7970
27.878765 89.266 -152.0915
28.080786 89.273 -152.3821
28.284271 89.279 -152.6696
28.489231 89.285 -152.9540
28.695675 89.291 -153.2363
28.903616 89.298 -153.5169
29.113064 89.304 -153.7969
29.324028 89.311 -154.0765
29.536524 89.317 -154.3564
29.750557 89.323 -154.6368
29.966141 89.329 -154.9177
30.183289 89.334 -155.1985
30.402010 89.339 -155.4788
30.622314 89.343 -155.7574
30.844217 89.347 -156.0333
31.067726 89.350 -156.3061
31.292856 89.353 -156.5753
31.519617 89.356 -156.8417
31.748020 89.359 -157.1055
31.978081 89.362 -157.3690
32.209808 89.366 -157.6326
32.443211 89.369 -157.8981
32.678310 89.372 -158.1654
32.915108 89.375 -158.4346
33.153625 89.377 -158.7043
33.393871 89.379 -158.9733
33.635857 89.380 -159.2404
33.879597 89.380 -159.5043
34.125103 89.381 -159.7647
34.372387 89.381 -160.0216
34.621464 89.381 -160.2758
34.872345 89.382 -160.5280
35.125042 89.382 -160.7789
35.379574 89.383 -161.0294
35.635948 89.384 -161.2800
35.894180 89.385 -161.5310
36.154285 89.386 -161.7830
36.416275 89.387 -162.0363
36.680161 89.387 -162.2906
36.945961 89.387 -162.5458
37.213688 89.386 -162.8005
37.483353 89.384 -163.0528
37.754974 89.382 -163.3011
38.028561 89.379 -163.5439
38.304131 89.376 -163.7806
38.581699 89.373 -164.0125
38.861279 89.371 -164.2412
39.142883 89.369 -164.4695
39.426529 89.367 -164.6996
39.712231 89.365 -164.9320
40.000000 89.363 -165.1658
40.289856 89.360 -165.3990
40.581814 89.356 -165.6291
40.875885 89.352 -165.8548
41.172089 89.348 -166.0768
41.470440 89.344 -166.2971
41.770950 89.341 -166.5180
42.073643 89.337 -166.7415
42.378525 89.333 -166.9668
42.685616 89.329 -167.1913
42.994934 89.323 -167.4126
43.306492 89.318 -167.6293
43.620308 89.313 -167.8423
43.936401 89.308 -168.0548
44.254780 89.304 -168.2703
44.575470 89.299 -168.4898
44.898483 89.294 -168.7111
45.223835 89.287 -168.9303
45.551544 89.280 -169.1446
45.881630 89.273 -169.3535
46.214108 89.266 -169.5590
46.548996 89.259 -169.7636
46.886307 89.252 -169.9671
47.226067 89.244 -170.1660
47.568283 89.237 -170.3561
47.912983 89.230 -170.5383
48.260181 89.226 -170.7201
48.609894 89.223 -170.9126
48.962143 89.221 -171.1232
49.316940 89.216 -171.3489
49.674313 89.208 -171.5768
50.034271 89.197 -171.7918
50.396843 89.186 -171.9864
50.762039 89.176 -172.1661
51.129883 89.167 -172.3441
51.500389 89.160 -172.5309
51.873581 89.152 -172.7258
52.249481 89.142 -172.9193
52.628101 89.131 -173.1021
53.009464 89.121 -173.2747
53.393593 89.111 -173.4460
53.780506 89.103 -173.6237
54.170223 89.093 -173.8065
54.562763 89.082 -173.9853
54.958145 89.071 -174.1535
55.356396 89.062 -174.3153
55.757530 89.054 -174.4828
56.161572 89.046 -174.6639
56.568542 89.036 -174.8534
56.978462 89.024 -175.0367
57.391350 89.011 -175.2053
57.807232 89.000 -175.3647
58.226128 88.990 -175.5289
58.648056 88.980 -175.7041
59.073048 88.968 -175.8806
59.501114 88.954 -176.0414
59.932281 88.941 -176.1818
60.366577 88.932 -176.3189
60.804020 88.925 -176.4770
61.244629 88.916 -176.6622
61.688435 88.902 -176.8510
62.135452 88.885 -177.0081
62.585712 88.870 -177.1251
63.039234 88.862 -177.2368
63.496040 88.858 -177.3906
63.956161 88.851 -177.5989
64.419617 88.833 -177.8155
64.886421 88.809 -177.9773
65.356621 88.787 -178.0691
65.830215 88.776 -178.1406
66.307251 88.771 -178.2551
66.787743 88.764 -178.4213
67.271713 88.749 -178.5933
67.759193 88.732 -178.7299
68.250206 88.718 -178.8409
68.744774 88.708 -178.9635
69.242928 88.697 -179.1105
69.744690 88.682 -179.2592
70.250084 88.665 -179.3864
70.759148 88.650 -179.4967
71.271896 88.637 -179.6101
71.788361 88.626 -179.7398
72.308571 88.612 -179.8838
72.832550 88.595 179.9745
73.360321 88.575 179.8594
73.891922 88.559 179.7757
74.427376 88.549 179.6871
74.966705 88.542 179.5500
75.509949 88.528 179.3742
76.057121 88.507 179.2213
76.608261 88.485 179.1263
77.163399 88.471 179.0503
77.722557 88.461 178.9409
78.285767 88.447 178.8079
78.853058 88.430 178.6916
79.424461 88.414 178.5917
80.000000 88.400 178.4843
80.579712 88.384 178.3751
81.163628 88.367 178.2834
81.751770 88.354 178.1942
82.344177 88.341 178.0836
82.940880 88.324 177.9650
83.541901 88.305 177.8670
84.147285 88.288 177.7864
84.757050 88.273 177.6982
85.371231 88.258 177.5979
85.989868 88.241 177.4974
86.612984 88.223 177.4048
87.240616 88.206 177.3192
87.872803 88.191 177.2344
88.509560 88.175 177.1432
89.150940 88.158 177.0496
89.796967 88.141 176.9630
90.447670 88.124 176.8810
91.103088 88.107 176.7978
91.763260 88.089 176.7210
