* Measurement data measured by REW V5.20.4
* Source: Microphone (BGVP HiFi Audio-T01s), MICROPHONE (Master Volume), R, volume: 0.260
* Format: 256k Log Swept Sine, 1 sweep at -6.0 dBFS with no timing reference
* Dated: 30 May, 2023 12:36:30 AM
* REW Settings:
*  C-weighting compensation: Off
*  Target level: 75.0 dB
* Note: 
* Measurement: HA-FDX1 Blue L
* Smoothing: None
* Frequency Step: 1/96 octave
* Start Frequency: 0.366 Hz
*
* Freq(Hz) SPL(dB) Phase(degrees)
0.366299 39.993 -169.3089
0.368954 39.903 -168.7751
0.371627 39.812 -168.2164
0.374320 39.720 -167.6326
0.377033 39.628 -167.0235
0.379765 39.535 -166.3889
0.382517 39.442 -165.7288
0.385289 39.347 -165.0428
0.388081 39.253 -164.3309
0.390893 39.157 -163.5929
0.393725 39.061 -162.8286
0.396578 38.964 -162.0381
0.399452 38.866 -161.2210
0.402347 38.768 -160.3774
0.405262 38.669 -159.5070
0.408199 38.569 -158.6099
0.411157 38.468 -157.6859
0.414136 38.367 -156.7349
0.417137 38.265 -155.7569
0.420160 38.162 -154.7517
0.423205 38.059 -153.7195
0.426272 37.955 -152.6601
0.429361 37.850 -151.5735
0.432472 37.744 -150.4597
0.435606 37.637 -149.3186
0.438762 37.530 -148.1504
0.441942 37.422 -146.9550
0.445144 37.313 -145.7325
0.448370 37.204 -144.4830
0.451619 37.093 -143.2065
0.454892 36.982 -141.9030
0.458188 36.870 -140.5728
0.461508 36.757 -139.2159
0.464852 36.643 -137.8326
0.468221 36.529 -136.4228
0.471614 36.414 -134.9869
0.475031 36.298 -133.5250
0.478474 36.181 -132.0373
0.481941 36.063 -130.5242
0.485433 35.944 -128.9857
0.488951 35.825 -127.4224
0.492494 35.704 -125.8344
0.496063 35.583 -124.2221
0.499658 35.461 -122.5858
0.503278 35.338 -120.9260
0.506925 35.214 -119.2430
0.510599 35.089 -117.5373
0.514299 34.963 -115.8095
0.518025 34.836 -114.0599
0.521779 34.709 -112.2891
0.525560 34.580 -110.4977
0.529369 34.451 -108.6863
0.533205 34.321 -106.8555
0.537069 34.189 -105.0060
0.540960 34.057 -103.1384
0.544880 33.924 -101.2536
0.548829 33.790 -99.3523
0.552806 33.654 -97.4354
0.556812 33.518 -95.5036
0.560847 33.381 -93.5579
0.564911 33.243 -91.5993
0.569004 33.104 -89.6287
0.573128 32.964 -87.6472
0.577281 32.823 -85.6558
0.581464 32.681 -83.6558
0.585677 32.537 -81.6482
0.589921 32.393 -79.6343
0.594196 32.248 -77.6155
0.598502 32.102 -75.5931
0.602839 31.954 -73.5684
0.607207 31.806 -71.5430
0.611608 31.656 -69.5183
0.616040 31.506 -67.4961
0.620504 31.354 -65.4778
0.625000 31.201 -63.4652
0.629529 31.047 -61.4602
0.634091 30.892 -59.4645
0.638686 30.736 -57.4802
0.643314 30.579 -55.5091
0.647976 30.420 -53.5535
0.652671 30.261 -51.6154
0.657401 30.100 -49.6970
0.662164 29.938 -47.8008
0.666963 29.775 -45.9291
0.671796 29.611 -44.0844
0.676664 29.445 -42.2693
0.681567 29.279 -40.4865
0.686506 29.111 -38.7387
0.691481 28.942 -37.0288
0.696492 28.771 -35.3598
0.701539 28.600 -33.7348
0.706622 28.427 -32.1570
0.711743 28.253 -30.6296
0.716900 28.078 -29.1561
0.722095 27.901 -27.7399
0.727328 27.724 -26.3848
0.732599 27.553 -25.0944
0.737907 27.625 -23.8524
0.743254 27.715 -22.6423
0.748640 27.821 -21.4641
0.754065 27.945 -20.3178
0.759530 28.086 -19.2035
0.765033 28.243 -18.1212
0.770577 28.417 -17.0708
0.776161 28.607 -16.0522
0.781785 28.814 -15.0655
0.787451 29.037 -14.1104
0.793157 29.276 -13.1869
0.798904 29.531 -12.2948
0.804694 29.801 -11.4339
0.810525 30.086 -10.6041
0.816398 30.387 -9.8050
0.822314 30.702 -9.0365
0.828273 31.032 -8.2982
0.834275 31.375 -7.5897
0.840320 31.733 -6.9108
0.846410 32.103 -6.2609
0.852543 32.487 -5.6398
0.858721 32.883 -5.0468
0.864944 33.292 -4.4816
0.871211 33.711 -3.9434
0.877525 34.143 -3.4318
0.883883 34.584 -2.9461
0.890288 35.036 -2.4856
0.896740 35.497 -2.0495
0.903238 35.967 -1.6372
0.909783 36.445 -1.2477
0.916376 36.931 -0.8802
0.923016 37.423 -0.5338
0.929705 37.922 -0.2074
0.936442 38.425 0.0999
0.943228 38.933 0.3894
0.950063 39.445 0.6620
0.956947 39.960 0.9191
0.963882 40.476 1.1620
0.970866 40.993 1.3919
0.977902 41.509 1.6104
0.984988 42.025 1.8189
0.992126 42.538 2.0189
0.999315 43.047 2.2122
1.006557 43.552 2.4003
1.013850 44.050 2.5852
1.021197 44.542 2.7687
1.028597 45.024 2.9527
1.036051 45.497 3.1393
1.043558 45.958 3.3307
1.051121 46.406 3.5290
1.058737 46.839 3.7365
1.066409 47.256 3.9558
1.074137 47.654 4.1893
1.081921 48.033 4.4397
1.089761 48.391 4.7096
1.097658 48.725 5.0020
1.105612 49.040 5.2994
1.113623 49.347 5.5714
1.121693 49.645 5.8176
1.129821 49.935 6.0387
1.138009 50.216 6.2348
1.146255 50.489 6.4063
1.154561 50.755 6.5539
1.162928 51.013 6.6778
1.171355 51.263 6.7786
1.179843 51.506 6.8569
1.188393 51.741 6.9131
1.197004 51.970 6.9481
1.205678 52.192 6.9623
1.214415 52.407 6.9565
1.223215 52.616 6.9314
1.232079 52.819 6.8879
1.241007 53.017 6.8267
1.250000 53.209 6.7487
1.259058 53.396 6.6549
1.268182 53.578 6.5462
1.277371 53.756 6.4237
1.286628 53.930 6.2884
1.295951 54.101 6.1415
1.305342 54.268 5.9842
1.314801 54.433 5.8176
1.324329 54.595 5.6432
1.333925 54.756 5.4623
1.343592 54.916 5.2764
1.353328 55.075 5.0868
1.363135 55.233 4.8953
1.373013 55.393 4.7035
1.382962 55.553 4.5130
1.392983 55.715 4.3257
1.403078 55.879 4.1435
1.413245 56.046 3.9682
1.423486 56.217 3.8019
1.433801 56.393 3.6467
1.444191 56.574 3.5049
1.454656 56.761 3.3786
1.465197 56.955 3.2704
1.475815 57.152 3.1686
1.486509 57.346 3.0619
1.497281 57.539 2.9502
1.508131 57.730 2.8337
1.519059 57.920 2.7123
1.530067 58.107 2.5862
1.541154 58.293 2.4553
1.552322 58.478 2.3198
1.563571 58.660 2.1797
1.574901 58.842 2.0350
1.586314 59.022 1.8859
1.597809 59.200 1.7325
1.609387 59.378 1.5748
1.621049 59.554 1.4129
1.632796 59.729 1.2469
1.644628 59.903 1.0770
1.656546 60.076 0.9032
1.668550 60.248 0.7257
1.680641 60.420 0.5446
1.692819 60.591 0.3601
1.705086 60.761 0.1722
1.717442 60.931 -0.0189
1.729887 61.101 -0.2129
1.742423 61.270 -0.4098
1.755049 61.440 -0.6094
1.767767 61.609 -0.8114
1.780577 61.779 -1.0158
1.793480 61.950 -1.2221
1.806476 62.121 -1.4304
1.819566 62.292 -1.6403
1.832752 62.465 -1.8516
1.846033 62.637 -2.0662
1.859410 62.808 -2.2855
1.872884 62.978 -2.5092
1.886456 63.147 -2.7375
1.900126 63.315 -2.9701
1.913895 63.482 -3.2072
1.927764 63.648 -3.4485
1.941733 63.813 -3.6941
1.955804 63.977 -3.9438
1.969976 64.140 -4.1976
1.984251 64.302 -4.4553
1.998630 64.463 -4.7170
2.013113 64.624 -4.9825
2.027701 64.784 -5.2516
2.042394 64.943 -5.5244
2.057194 65.102 -5.8006
2.072102 65.260 -6.0801
2.087117 65.418 -6.3629
2.102241 65.575 -6.6488
2.117475 65.733 -6.9376
2.132819 65.890 -7.2291
2.148274 66.046 -7.5234
2.163841 66.203 -7.8200
2.179522 66.360 -8.1190
2.195315 66.517 -8.4201
2.211223 66.674 -8.7241
2.227247 66.830 -9.0325
2.243386 66.985 -9.3453
2.259643 67.138 -9.6624
2.276017 67.291 -9.9837
2.292510 67.443 -10.3092
2.309123 67.594 -10.6386
2.325855 67.744 -10.9720
2.342710 67.893 -11.3092
2.359686 68.041 -11.6501
2.376785 68.189 -11.9945
2.394008 68.336 -12.3424
2.411356 68.482 -12.6936
2.428830 68.627 -13.0480
2.446430 68.772 -13.4054
2.464158 68.917 -13.7656
2.482014 69.061 -14.1286
2.500000 69.204 -14.4941
2.518116 69.347 -14.8619
2.536363 69.490 -15.2319
2.554743 69.633 -15.6038
2.573256 69.776 -15.9778
2.591902 69.917 -16.3556
2.610684 70.058 -16.7373
2.629603 70.197 -17.1227
2.648658 70.335 -17.5118
2.667851 70.473 -17.9045
2.687183 70.609 -18.3005
2.706656 70.744 -18.6998
2.726269 70.879 -19.1021
2.746025 71.012 -19.5074
2.765924 71.145 -19.9155
2.785967 71.277 -20.3262
2.806155 71.409 -20.7393
2.826490 71.540 -21.1546
2.846972 71.670 -21.5720
2.867602 71.799 -21.9911
2.888382 71.928 -22.4119
2.909312 72.057 -22.8340
2.930394 72.186 -23.2572
2.951629 72.313 -23.6826
2.973018 72.439 -24.1109
2.994561 72.565 -24.5420
3.016261 72.689 -24.9759
3.038118 72.812 -25.4122
3.060134 72.934 -25.8509
3.082309 73.055 -26.2917
3.104645 73.175 -26.7346
3.127142 73.294 -27.1793
3.149803 73.412 -27.6256
3.172627 73.530 -28.0732
3.195618 73.647 -28.5221
3.218774 73.763 -28.9719
3.242099 73.878 -29.4225
3.265593 73.994 -29.8735
3.289256 74.108 -30.3248
3.313092 74.222 -30.7765
3.337100 74.335 -31.2296
3.361282 74.447 -31.6842
3.385639 74.557 -32.1400
3.410173 74.667 -32.5969
3.434884 74.775 -33.0548
3.459775 74.882 -33.5135
3.484846 74.989 -33.9728
3.510098 75.094 -34.4326
3.535534 75.199 -34.8927
3.561154 75.303 -35.3528
3.586959 75.407 -35.8129
3.612952 75.510 -36.2727
3.639133 75.612 -36.7320
3.665504 75.714 -37.1905
3.692065 75.816 -37.6486
3.718820 75.916 -38.1065
3.745768 76.015 -38.5641
3.772911 76.113 -39.0213
3.800251 76.210 -39.4782
3.827789 76.306 -39.9345
3.855527 76.401 -40.3904
3.883466 76.496 -40.8457
3.911607 76.590 -41.3003
3.939952 76.684 -41.7543
3.968503 76.777 -42.2075
3.997260 76.869 -42.6599
4.026226 76.962 -43.1114
4.055401 77.054 -43.5616
4.084789 77.145 -44.0102
4.114388 77.235 -44.4572
4.144203 77.324 -44.9028
4.174234 77.413 -45.3472
4.204482 77.501 -45.7904
4.234950 77.588 -46.2325
4.265638 77.675 -46.6738
4.296548 77.761 -47.1144
4.327683 77.847 -47.5544
4.359043 77.933 -47.9941
4.390630 78.019 -48.4335
4.422447 78.105 -48.8721
4.454494 78.189 -49.3086
4.486773 78.274 -49.7434
4.519286 78.357 -50.1767
4.552034 78.441 -50.6088
4.585020 78.523 -51.0401
4.618245 78.606 -51.4709
4.651711 78.688 -51.9015
4.685419 78.770 -52.3324
4.719372 78.851 -52.7639
4.753570 78.933 -53.1964
4.788016 79.015 -53.6294
4.822712 79.096 -54.0613
4.857660 79.176 -54.4924
4.892860 79.257 -54.9230
4.928316 79.337 -55.3534
4.964029 79.417 -55.7841
5.000000 79.496 -56.2154
5.036232 79.575 -56.6477
5.072727 79.654 -57.0814
5.109486 79.733 -57.5170
5.146511 79.811 -57.9546
5.183805 79.890 -58.3929
5.221369 79.968 -58.8318
5.259205 80.045 -59.2715
5.297316 80.123 -59.7121
5.335702 80.199 -60.1540
5.374367 80.276 -60.5971
5.413311 80.352 -61.0419
5.452538 80.428 -61.4884
5.492050 80.504 -61.9370
5.531847 80.579 -62.3875
5.571934 80.653 -62.8397
5.612310 80.728 -63.2935
5.652979 80.801 -63.7487
5.693943 80.875 -64.2054
5.735204 80.948 -64.6633
5.776763 81.020 -65.1223
5.818624 81.092 -65.5824
5.860788 81.163 -66.0434
5.903258 81.234 -66.5057
5.946035 81.305 -66.9696
5.989123 81.374 -67.4347
6.032523 81.443 -67.9007
6.076237 81.512 -68.3674
6.120268 81.580 -68.8344
6.164618 81.648 -69.3015
6.209289 81.715 -69.7682
6.254284 81.782 -70.2344
6.299605 81.848 -70.7009
6.345255 81.913 -71.1674
6.391235 81.978 -71.6339
6.437549 82.043 -72.1000
6.484198 82.107 -72.5655
6.531185 82.170 -73.0302
6.578513 82.234 -73.4938
6.626183 82.297 -73.9561
6.674199 82.360 -74.4171
6.722563 82.422 -74.8769
6.771278 82.484 -75.3357
6.820345 82.545 -75.7935
6.869768 82.606 -76.2504
6.919549 82.668 -76.7067
6.969691 82.729 -77.1625
7.020196 82.790 -77.6166
7.071068 82.851 -78.0691
7.122308 82.912 -78.5204
7.173919 82.972 -78.9709
7.225904 83.033 -79.4214
7.278266 83.093 -79.8722
7.331007 83.154 -80.3240
7.384131 83.215 -80.7755
7.437639 83.275 -81.2263
7.491535 83.336 -81.6770
7.545822 83.396 -82.1281
7.600502 83.457 -82.5802
7.655579 83.517 -83.0340
7.711054 83.578 -83.4900
7.766932 83.638 -83.9472
7.823214 83.699 -84.4054
7.879904 83.759 -84.8649
7.937005 83.819 -85.3259
7.994520 83.879 -85.7887
8.052452 83.939 -86.2535
8.110803 83.998 -86.7206
8.169578 84.057 -87.1898
8.228777 84.116 -87.6608
8.288406 84.174 -88.1332
8.348468 84.232 -88.6067
8.408964 84.290 -89.0809
8.469899 84.347 -89.5561
8.531276 84.403 -90.0330
8.593097 84.459 -90.5110
8.655366 84.515 -90.9893
8.718086 84.569 -91.4671
8.781260 84.624 -91.9435
8.844893 84.677 -92.4187
8.908987 84.730 -92.8938
8.973545 84.782 -93.3680
9.038571 84.834 -93.8405
9.104069 84.886 -94.3106
9.170040 84.936 -94.7776
9.236490 84.987 -95.2417
9.303422 85.037 -95.7032
9.370838 85.086 -96.1619
9.438744 85.135 -96.6176
9.507140 85.183 -97.0701
9.576033 85.232 -97.5188
9.645425 85.280 -97.9635
9.715320 85.328 -98.4047
9.785721 85.376 -98.8428
9.856632 85.424 -99.2785
9.928058 85.471 -99.7117
10.000000 85.519 -100.1412
10.072464 85.567 -100.5675
10.145453 85.614 -100.9916
10.218971 85.662 -101.4145
10.293022 85.710 -101.8369
10.367610 85.758 -102.2570
10.442738 85.805 -102.6754
10.518411 85.853 -103.0930
10.594631 85.901 -103.5107
10.671404 85.948 -103.9291
10.748734 85.996 -104.3470
10.826623 86.043 -104.7646
10.905077 86.090 -105.1825
10.984100 86.137 -105.6011
11.063695 86.184 -106.0203
11.143867 86.230 -106.4401
11.224621 86.276 -106.8600
11.305959 86.321 -107.2800
11.387886 86.366 -107.6999
11.470407 86.410 -108.1201
11.553527 86.454 -108.5402
11.637249 86.497 -108.9597
11.721577 86.540 -109.3779
11.806517 86.582 -109.7951
11.892071 86.623 -110.2113
11.978246 86.663 -110.6261
12.065045 86.703 -111.0389
12.152473 86.743 -111.4494
12.240536 86.782 -111.8579
12.329235 86.820 -112.2642
12.418578 86.858 -112.6682
12.508568 86.895 -113.0698
12.599211 86.932 -113.4686
12.690510 86.969 -113.8650
12.782471 87.005 -114.2595
12.875097 87.041 -114.6522
12.968395 87.076 -115.0423
13.062370 87.112 -115.4306
13.157025 87.147 -115.8177
13.252366 87.181 -116.2042
13.348398 87.216 -116.5890
13.445127 87.250 -116.9729
13.542556 87.284 -117.3568
13.640691 87.318 -117.7408
13.739536 87.352 -118.1243
13.839099 87.385 -118.5077
13.939383 87.418 -118.8916
14.040393 87.450 -119.2759
14.142136 87.482 -119.6603
14.244616 87.514 -120.0448
14.347837 87.545 -120.4294
14.451808 87.576 -120.8141
14.556532 87.607 -121.1987
14.662014 87.637 -121.5829
14.768262 87.667 -121.9666
14.875278 87.696 -122.3498
14.983070 87.725 -122.7324
15.091644 87.753 -123.1142
15.201005 87.782 -123.4952
15.311157 87.810 -123.8755
15.422109 87.838 -124.2556
15.533863 87.865 -124.6349
15.646428 87.893 -125.0138
15.759809 87.920 -125.3930
15.874010 87.947 -125.7722
15.989040 87.974 -126.1516
16.104904 88.001 -126.5315
16.221605 88.028 -126.9122
16.339155 88.054 -127.2933
16.457554 88.080 -127.6749
16.576813 88.106 -128.0571
16.696936 88.132 -128.4397
16.817928 88.157 -128.8222
16.939798 88.182 -129.2042
17.062551 88.206 -129.5859
17.186193 88.230 -129.9667
17.310732 88.254 -130.3460
17.436172 88.278 -130.7240
17.562521 88.301 -131.1003
17.689787 88.324 -131.4746
17.817974 88.346 -131.8469
17.947090 88.369 -132.2175
18.077143 88.391 -132.5862
18.208138 88.414 -132.9531
18.340080 88.436 -133.3186
18.472980 88.458 -133.6826
18.606844 88.480 -134.0453
18.741676 88.502 -134.4072
18.877487 88.523 -134.7680
19.014280 88.545 -135.1279
19.152065 88.566 -135.4871
19.290850 88.587 -135.8453
19.430639 88.607 -136.2023
19.571442 88.627 -136.5583
19.713264 88.646 -136.9125
19.856115 88.665 -137.2643
20.000000 88.684 -137.6140
20.144928 88.701 -137.9599
20.290907 88.719 -138.3018
20.437943 88.735 -138.6392
20.586044 88.752 -138.9707
20.735220 88.767 -139.2964
20.885475 88.783 -139.6162
21.036821 88.799 -139.9292
21.189262 88.816 -140.2370
21.342808 88.833 -140.5411
21.497467 88.850 -140.8411
21.653246 88.869 -141.1422
21.810154 88.888 -141.4438
21.968201 88.908 -141.7499
22.127390 88.928 -142.0634
22.287735 88.948 -142.3840
22.449242 88.968 -142.7148
22.611917 88.988 -143.0551
22.775772 89.006 -143.4023
22.940815 89.022 -143.7576
23.107054 89.036 -144.1139
23.274498 89.048 -144.4713
23.443153 89.058 -144.8242
23.613033 89.066 -145.1693
23.784142 89.073 -145.5058
23.956491 89.080 -145.8303
24.130091 89.086 -146.1446
24.304947 89.092 -146.4499
24.481071 89.099 -146.7472
24.658470 89.107 -147.0421
24.837156 89.116 -147.3345
25.017136 89.126 -147.6300
25.198421 89.136 -147.9280
25.381020 89.146 -148.2301
25.564941 89.156 -148.5358
25.750195 89.166 -148.8430
25.936790 89.175 -149.1515
26.124741 89.184 -149.4588
26.314051 89.193 -149.7652
26.504732 89.203 -150.0709
26.696796 89.212 -150.3765
26.890253 89.221 -150.6847
27.085112 89.231 -150.9959
27.281382 89.240 -151.3123
27.479073 89.249 -151.6322
27.678198 89.256 -151.9557
27.878765 89.262 -152.2782
28.080786 89.267 -152.5981
28.284271 89.271 -152.9102
28.489231 89.274 -153.2135
28.695675 89.276 -153.5063
28.903616 89.279 -153.7894
29.113064 89.283 -154.0658
29.324028 89.287 -154.3383
29.536524 89.293 -154.6104
29.750557 89.298 -154.8844
29.966141 89.304 -155.1612
30.183289 89.309 -155.4394
30.402010 89.313 -155.7172
30.622314 89.317 -155.9913
30.844217 89.320 -156.2598
31.067726 89.324 -156.5217
31.292856 89.327 -156.7785
31.519617 89.331 -157.0329
31.748020 89.337 -157.2879
31.978081 89.342 -157.5476
32.209808 89.348 -157.8129
32.443211 89.352 -158.0843
32.678310 89.356 -158.3587
32.915108 89.359 -158.6341
33.153625 89.360 -158.9058
33.393871 89.361 -159.1728
33.635857 89.362 -159.4341
33.879597 89.363 -159.6918
34.125103 89.364 -159.9486
34.372387 89.365 -160.2068
34.621464 89.366 -160.4684
34.872345 89.366 -160.7323
35.125042 89.366 -160.9971
35.379574 89.364 -161.2585
35.635948 89.362 -161.5141
35.894180 89.359 -161.7623
36.154285 89.357 -162.0030
36.416275 89.356 -162.2395
36.680161 89.355 -162.4747
36.945961 89.355 -162.7120
37.213688 89.356 -162.9542
37.483353 89.356 -163.2012
37.754974 89.356 -163.4521
38.028561 89.355 -163.7048
38.304131 89.352 -163.9559
38.581699 89.350 -164.2034
38.861279 89.346 -164.4458
39.142883 89.342 -164.6826
39.426529 89.339 -164.9146
39.712231 89.336 -165.1437
40.000000 89.333 -165.3719
40.289856 89.331 -165.6013
40.581814 89.328 -165.8332
40.875885 89.325 -166.0671
41.172089 89.321 -166.3012
41.470440 89.317 -166.5332
41.770950 89.312 -166.7613
42.073643 89.307 -166.9849
42.378525 89.303 -167.2054
42.685616 89.298 -167.4253
42.994934 89.294 -167.6458
43.306492 89.289 -167.8674
43.620308 89.284 -168.0885
43.936401 89.278 -168.3071
44.254780 89.273 -168.5220
44.575470 89.267 -168.7337
44.898483 89.261 -168.9440
45.223835 89.255 -169.1540
45.551544 89.250 -169.3640
45.881630 89.243 -169.5731
46.214108 89.237 -169.7805
46.548996 89.230 -169.9866
46.886307 89.223 -170.1923
47.226067 89.216 -170.3983
47.568283 89.208 -170.6026
47.912983 89.199 -170.8017
48.260181 89.190 -170.9930
48.609894 89.182 -171.1779
48.962143 89.174 -171.3611
49.316940 89.168 -171.5483
49.674313 89.162 -171.7420
50.034271 89.156 -171.9415
50.396843 89.150 -172.1456
50.762039 89.143 -172.3562
51.129883 89.136 -172.5778
51.500389 89.126 -172.8100
51.873581 89.113 -173.0416
52.249481 89.095 -173.2514
52.628101 89.076 -173.4212
53.009464 89.061 -173.5516
53.393593 89.053 -173.6675
53.780506 89.050 -173.8036
54.170223 89.050 -173.9800
54.562763 89.046 -174.1873
54.958145 89.037 -174.3953
55.356396 89.025 -174.5785
55.757530 89.014 -174.7367
56.161572 89.007 -174.8936
56.568542 89.002 -175.0729
56.978462 88.994 -175.2753
57.391350 88.981 -175.4780
57.807232 88.965 -175.6556
58.226128 88.949 -175.8031
58.648056 88.936 -175.9372
59.073048 88.927 -176.0800
59.501114 88.917 -176.2404
59.932281 88.906 -176.4110
60.366577 88.893 -176.5802
60.804020 88.880 -176.7443
61.244629 88.867 -176.9060
61.688435 88.854 -177.0670
62.135452 88.841 -177.2249
62.585712 88.828 -177.3802
63.039234 88.818 -177.5414
63.496040 88.807 -177.7183
63.956161 88.793 -177.9070
64.419617 88.775 -178.0851
64.886421 88.754 -178.2286
65.356621 88.737 -178.3359
65.830215 88.725 -178.4321
66.307251 88.716 -178.5470
66.787743 88.708 -178.6883
67.271713 88.696 -178.8409
67.759193 88.682 -178.9854
68.250206 88.667 -179.1154
68.744774 88.653 -179.2364
69.242928 88.639 -179.3575
69.744690 88.626 -179.4852
70.250084 88.610 -179.6165
70.759148 88.593 -179.7351
71.271896 88.576 -179.8278
71.788361 88.565 -179.9117
72.308571 88.558 179.9715
72.832550 88.548 179.8087
73.360321 88.529 179.6502
73.891922 88.507 179.5529
74.427376 88.494 179.4976
74.966705 88.491 179.4012
75.509949 88.486 179.2228
76.057121 88.468 179.0228
76.608261 88.443 178.8831
77.163399 88.423 178.8018
77.722557 88.408 178.7170
78.285767 88.395 178.6045
78.853058 88.379 178.4901
79.424461 88.363 178.3862
80.000000 88.348 178.2764
80.579712 88.332 178.1585
81.163628 88.314 178.0521
81.751770 88.298 177.9589
82.344177 88.283 177.8583
82.940880 88.267 177.7445
83.541901 88.249 177.6368
84.147285 88.231 177.5460
84.757050 88.215 177.4588
85.371231 88.199 177.3654
85.989868 88.182 177.2711
86.612984 88.165 177.1819
87.240616 88.149 177.0939
87.872803 88.132 177.0042
88.509560 88.115 176.9168
89.150940 88.098 176.8334
89.796967 88.080 176.7509
90.447670 88.063 176.6700
